Wavelength (nm),Absorbance
1000.0, 0.182
998.0, 0.183
996.0, 0.185
994.0, 0.186
992.0, 0.188
990.0, 0.190
988.0, 0.191
986.0, 0.193
984.0, 0.195
982.0, 0.198
980.0, 0.200
978.0, 0.204
976.0, 0.206
974.0, 0.210
972.0, 0.213
970.0, 0.217
968.0, 0.222
966.0, 0.226
964.0, 0.232
962.0, 0.237
960.0, 0.244
958.0, 0.253
956.0, 0.260
954.0, 0.269
952.0, 0.278
950.0, 0.288
948.0, 0.300
946.0, 0.314
944.0, 0.328
942.0, 0.346
940.0, 0.365
938.0, 0.389
936.0, 0.415
934.0, 0.448
932.0, 0.485
930.0, 0.531
928.0, 0.583
926.0, 0.650
924.0, 0.725
922.0, 0.824
920.0, 0.943
918.0, 1.100
916.0, 1.287
914.0, 1.526
912.0, 1.778
910.0, 2.080
908.0, 2.346
906.0, 2.522
904.0, 2.589
902.0, 2.612
900.0, 2.626
898.0, 2.642
896.0, 2.647
894.0, 2.662
892.0, 2.672
890.0, 2.684
888.0, 2.691
886.0, 2.694
884.0, 2.697
882.0, 2.700
880.0, 2.698
878.0, 2.689
876.0, 2.676
874.0, 2.654
872.0, 2.627
870.0, 2.589
868.0, 2.537
866.0, 2.469
864.0, 2.401
862.0, 2.319
860.0, 2.232
858.0, 2.139
856.0, 2.047
854.0, 1.961
852.0, 1.879
850.0, 1.801
848.0, 1.728
846.0, 1.660
844.0, 1.598
842.0, 1.542
840.0, 1.492
838.0, 1.449
836.0, 1.410
834.0, 1.378
832.0, 1.350
830.0, 1.328
828.0, 1.310
826.0, 1.297
824.0, 1.286
822.0, 1.274
820.0, 1.263
818.0, 1.249
816.0, 1.232
814.0, 1.215
812.0, 1.198
810.0, 1.181
808.0, 1.166
806.0, 1.153
804.0, 1.140
802.0, 1.130
800.0, 1.121
798.0, 1.116
796.0, 1.110
794.0, 1.108
792.0, 1.105
790.0, 1.102
788.0, 1.099
786.0, 1.096
784.0, 1.092
782.0, 1.086
780.0, 1.080
778.0, 1.073
776.0, 1.064
774.0, 1.054
772.0, 1.043
770.0, 1.031
768.0, 1.017
766.0, 1.002
764.0, 0.984
762.0, 0.965
760.0, 0.944
758.0, 0.923
756.0, 0.899
754.0, 0.875
752.0, 0.850
750.0, 0.823
748.0, 0.797
746.0, 0.770
744.0, 0.744
742.0, 0.718
740.0, 0.695
738.0, 0.671
736.0, 0.650
734.0, 0.629
732.0, 0.612
730.0, 0.595
728.0, 0.579
726.0, 0.566
724.0, 0.553
722.0, 0.540
720.0, 0.529
718.0, 0.519
716.0, 0.509
714.0, 0.499
712.0, 0.491
710.0, 0.482
708.0, 0.475
706.0, 0.467
704.0, 0.460
702.0, 0.453
700.0, 0.446
####,####
 Gain : ,3
 Light Source : ,2
 Mode : ,D2 lamp
 Time : ,23/02/2016-09:36:57
####,####
